# E (eV) pdos(E) 
-25.210  0.263E-04
-25.200  0.301E-04
-25.190  0.344E-04
-25.180  0.394E-04
-25.170  0.451E-04
-25.160  0.515E-04
-25.150  0.588E-04
-25.140  0.671E-04
-25.130  0.765E-04
-25.120  0.872E-04
-25.110  0.993E-04
-25.100  0.113E-03
-25.090  0.128E-03
-25.080  0.146E-03
-25.070  0.166E-03
-25.060  0.188E-03
-25.050  0.214E-03
-25.040  0.242E-03
-25.030  0.274E-03
-25.020  0.310E-03
-25.010  0.350E-03
-25.000  0.396E-03
-24.990  0.448E-03
-24.980  0.505E-03
-24.970  0.570E-03
-24.960  0.642E-03
-24.950  0.723E-03
-24.940  0.814E-03
-24.930  0.916E-03
-24.920  0.103E-02
-24.910  0.116E-02
-24.900  0.130E-02
-24.890  0.146E-02
-24.880  0.163E-02
-24.870  0.183E-02
-24.860  0.204E-02
-24.850  0.230E-02
-24.840  0.256E-02
-24.830  0.286E-02
-24.820  0.320E-02
-24.810  0.356E-02
-24.800  0.398E-02
-24.790  0.444E-02
-24.780  0.494E-02
-24.770  0.550E-02
-24.760  0.611E-02
-24.750  0.679E-02
-24.740  0.754E-02
-24.730  0.837E-02
-24.720  0.929E-02
-24.710  0.103E-01
-24.700  0.114E-01
-24.690  0.126E-01
-24.680  0.140E-01
-24.670  0.154E-01
-24.660  0.170E-01
-24.650  0.188E-01
-24.640  0.208E-01
-24.630  0.229E-01
-24.620  0.252E-01
-24.610  0.278E-01
-24.600  0.306E-01
-24.590  0.336E-01
-24.580  0.369E-01
-24.570  0.406E-01
-24.560  0.444E-01
-24.550  0.488E-01
-24.540  0.534E-01
-24.530  0.586E-01
-24.520  0.640E-01
-24.510  0.700E-01
-24.500  0.766E-01
-24.490  0.836E-01
-24.480  0.913E-01
-24.470  0.996E-01
-24.460  0.109E+00
-24.450  0.118E+00
-24.440  0.129E+00
-24.430  0.140E+00
-24.420  0.152E+00
-24.410  0.165E+00
-24.400  0.179E+00
-24.390  0.195E+00
-24.380  0.211E+00
-24.370  0.228E+00
-24.360  0.248E+00
-24.350  0.268E+00
-24.340  0.290E+00
-24.330  0.313E+00
-24.320  0.338E+00
-24.310  0.364E+00
-24.300  0.394E+00
-24.290  0.424E+00
-24.280  0.456E+00
-24.270  0.492E+00
-24.260  0.528E+00
-24.250  0.568E+00
-24.240  0.610E+00
-24.230  0.654E+00
-24.220  0.702E+00
-24.210  0.753E+00
-24.200  0.806E+00
-24.190  0.863E+00
-24.180  0.923E+00
-24.170  0.987E+00
-24.160  0.105E+01
-24.150  0.113E+01
-24.140  0.120E+01
-24.130  0.128E+01
-24.120  0.137E+01
-24.110  0.145E+01
-24.100  0.155E+01
-24.090  0.164E+01
-24.080  0.175E+01
-24.070  0.186E+01
-24.060  0.197E+01
-24.050  0.208E+01
-24.040  0.222E+01
-24.030  0.234E+01
-24.020  0.248E+01
-24.010  0.262E+01
-24.000  0.278E+01
-23.990  0.292E+01
-23.980  0.309E+01
-23.970  0.326E+01
-23.960  0.344E+01
-23.950  0.362E+01
-23.940  0.381E+01
-23.930  0.401E+01
-23.920  0.422E+01
-23.910  0.442E+01
-23.900  0.465E+01
-23.890  0.488E+01
-23.880  0.512E+01
-23.870  0.536E+01
-23.860  0.561E+01
-23.850  0.587E+01
-23.840  0.614E+01
-23.830  0.642E+01
-23.820  0.670E+01
-23.810  0.699E+01
-23.800  0.729E+01
-23.790  0.760E+01
-23.780  0.791E+01
-23.770  0.823E+01
-23.760  0.856E+01
-23.750  0.890E+01
-23.740  0.924E+01
-23.730  0.959E+01
-23.720  0.995E+01
-23.710  0.103E+02
-23.700  0.107E+02
-23.690  0.111E+02
-23.680  0.114E+02
-23.670  0.118E+02
-23.660  0.122E+02
-23.650  0.126E+02
-23.640  0.130E+02
-23.630  0.134E+02
-23.620  0.138E+02
-23.610  0.142E+02
-23.600  0.146E+02
-23.590  0.150E+02
-23.580  0.154E+02
-23.570  0.158E+02
-23.560  0.162E+02
-23.550  0.167E+02
-23.540  0.171E+02
-23.530  0.175E+02
-23.520  0.179E+02
-23.510  0.183E+02
-23.500  0.187E+02
-23.490  0.190E+02
-23.480  0.194E+02
-23.470  0.198E+02
-23.460  0.202E+02
-23.450  0.206E+02
-23.440  0.208E+02
-23.430  0.212E+02
-23.420  0.216E+02
-23.410  0.218E+02
-23.400  0.222E+02
-23.390  0.226E+02
-23.380  0.228E+02
-23.370  0.230E+02
-23.360  0.234E+02
-23.350  0.236E+02
-23.340  0.238E+02
-23.330  0.240E+02
-23.320  0.242E+02
-23.310  0.244E+02
-23.300  0.246E+02
-23.290  0.248E+02
-23.280  0.248E+02
-23.270  0.250E+02
-23.260  0.250E+02
-23.250  0.252E+02
-23.240  0.252E+02
-23.230  0.252E+02
-23.220  0.252E+02
-23.210  0.252E+02
-23.200  0.252E+02
-23.190  0.252E+02
-23.180  0.250E+02
-23.170  0.250E+02
-23.160  0.248E+02
-23.150  0.248E+02
-23.140  0.246E+02
-23.130  0.244E+02
-23.120  0.242E+02
-23.110  0.240E+02
-23.100  0.238E+02
-23.090  0.236E+02
-23.080  0.234E+02
-23.070  0.230E+02
-23.060  0.228E+02
-23.050  0.224E+02
-23.040  0.220E+02
-23.030  0.218E+02
-23.020  0.214E+02
-23.010  0.210E+02
-23.000  0.206E+02
-22.990  0.202E+02
-22.980  0.198E+02
-22.970  0.193E+02
-22.960  0.189E+02
-22.950  0.185E+02
-22.940  0.180E+02
-22.930  0.175E+02
-22.920  0.170E+02
-22.910  0.165E+02
-22.900  0.161E+02
-22.890  0.156E+02
-22.880  0.151E+02
-22.870  0.146E+02
-22.860  0.140E+02
-22.850  0.135E+02
-22.840  0.130E+02
-22.830  0.125E+02
-22.820  0.120E+02
-22.810  0.115E+02
-22.800  0.110E+02
-22.790  0.104E+02
-22.780  0.995E+01
-22.770  0.944E+01
-22.760  0.895E+01
-22.750  0.846E+01
-22.740  0.798E+01
-22.730  0.750E+01
-22.720  0.703E+01
-22.710  0.656E+01
-22.700  0.611E+01
-22.690  0.567E+01
-22.680  0.523E+01
-22.670  0.481E+01
-22.660  0.439E+01
-22.650  0.399E+01
-22.640  0.360E+01
-22.630  0.322E+01
-22.620  0.284E+01
-22.610  0.249E+01
-22.600  0.214E+01
-22.590  0.181E+01
-22.580  0.149E+01
-22.570  0.118E+01
-22.560  0.886E+00
-22.550  0.604E+00
-22.540  0.334E+00
-22.530  0.769E-01
-22.520 -0.167E+00
-22.510 -0.398E+00
-22.500 -0.617E+00
-22.490 -0.824E+00
-22.480 -0.102E+01
-22.470 -0.120E+01
-22.460 -0.137E+01
-22.450 -0.153E+01
-22.440 -0.167E+01
-22.430 -0.181E+01
-22.420 -0.193E+01
-22.410 -0.204E+01
-22.400 -0.215E+01
-22.390 -0.224E+01
-22.380 -0.232E+01
-22.370 -0.240E+01
-22.360 -0.246E+01
-22.350 -0.252E+01
-22.340 -0.256E+01
-22.330 -0.260E+01
-22.320 -0.264E+01
-22.310 -0.266E+01
-22.300 -0.268E+01
-22.290 -0.268E+01
-22.280 -0.270E+01
-22.270 -0.268E+01
-22.260 -0.268E+01
-22.250 -0.266E+01
-22.240 -0.264E+01
-22.230 -0.262E+01
-22.220 -0.260E+01
-22.210 -0.256E+01
-22.200 -0.254E+01
-22.190 -0.250E+01
-22.180 -0.246E+01
-22.170 -0.240E+01
-22.160 -0.236E+01
-22.150 -0.232E+01
-22.140 -0.226E+01
-22.130 -0.220E+01
-22.120 -0.216E+01
-22.110 -0.210E+01
-22.100 -0.204E+01
-22.090 -0.199E+01
-22.080 -0.193E+01
-22.070 -0.187E+01
-22.060 -0.181E+01
-22.050 -0.175E+01
-22.040 -0.170E+01
-22.030 -0.164E+01
-22.020 -0.158E+01
-22.010 -0.153E+01
-22.000 -0.147E+01
-21.990 -0.141E+01
-21.980 -0.136E+01
-21.970 -0.130E+01
-21.960 -0.125E+01
-21.950 -0.120E+01
-21.940 -0.115E+01
-21.930 -0.110E+01
-21.920 -0.105E+01
-21.910 -0.100E+01
-21.900 -0.958E+00
-21.890 -0.913E+00
-21.880 -0.870E+00
-21.870 -0.828E+00
-21.860 -0.788E+00
-21.850 -0.748E+00
-21.840 -0.710E+00
-21.830 -0.674E+00
-21.820 -0.639E+00
-21.810 -0.605E+00
-21.800 -0.572E+00
-21.790 -0.542E+00
-21.780 -0.512E+00
-21.770 -0.483E+00
-21.760 -0.456E+00
-21.750 -0.430E+00
-21.740 -0.404E+00
-21.730 -0.380E+00
-21.720 -0.358E+00
-21.710 -0.336E+00
-21.700 -0.316E+00
-21.690 -0.296E+00
-21.680 -0.278E+00
-21.670 -0.260E+00
-21.660 -0.244E+00
-21.650 -0.228E+00
-21.640 -0.213E+00
-21.630 -0.199E+00
-21.620 -0.186E+00
-21.610 -0.173E+00
-21.600 -0.161E+00
-21.590 -0.150E+00
-21.580 -0.140E+00
-21.570 -0.130E+00
-21.560 -0.121E+00
-21.550 -0.112E+00
-21.540 -0.104E+00
-21.530 -0.965E-01
-21.520 -0.894E-01
-21.510 -0.828E-01
-21.500 -0.766E-01
-21.490 -0.708E-01
-21.480 -0.654E-01
-21.470 -0.604E-01
-21.460 -0.557E-01
-21.450 -0.514E-01
-21.440 -0.473E-01
-21.430 -0.436E-01
-21.420 -0.400E-01
-21.410 -0.368E-01
-21.400 -0.338E-01
-21.390 -0.310E-01
-21.380 -0.284E-01
-21.370 -0.261E-01
-21.360 -0.239E-01
-21.350 -0.218E-01
-21.340 -0.200E-01
-21.330 -0.183E-01
-21.320 -0.167E-01
-21.310 -0.152E-01
-21.300 -0.139E-01
-21.290 -0.127E-01
-21.280 -0.115E-01
-21.270 -0.105E-01
-21.260 -0.956E-02
-21.250 -0.869E-02
-21.240 -0.790E-02
-21.230 -0.716E-02
-21.220 -0.650E-02
-21.210 -0.589E-02
-21.200 -0.534E-02
-21.190 -0.483E-02
-21.180 -0.437E-02
-21.170 -0.395E-02
-21.160 -0.356E-02
-21.150 -0.322E-02
-21.140 -0.290E-02
-21.130 -0.262E-02
-21.120 -0.236E-02
-21.110 -0.212E-02
-21.100 -0.191E-02
-21.090 -0.172E-02
-21.080 -0.154E-02
-21.070 -0.138E-02
-21.060 -0.124E-02
-21.050 -0.111E-02
-21.040 -0.997E-03
-21.030 -0.892E-03
-21.020 -0.798E-03
-21.010 -0.714E-03
-21.000 -0.638E-03
-20.990 -0.570E-03
-20.980 -0.508E-03
-20.970 -0.453E-03
-20.960 -0.404E-03
-20.950 -0.360E-03
-20.940 -0.320E-03
-20.930 -0.284E-03
-20.920 -0.252E-03
-20.910 -0.224E-03
-20.900 -0.199E-03
-20.890 -0.176E-03
-20.880 -0.156E-03
-20.870 -0.138E-03
-20.860 -0.122E-03
-20.850 -0.108E-03
-20.840 -0.956E-04
-20.830 -0.844E-04
-20.820 -0.745E-04
-20.810 -0.657E-04
-20.800 -0.578E-04
-20.790 -0.509E-04
-20.780 -0.448E-04
-20.770 -0.394E-04
-20.760 -0.346E-04
-20.750 -0.304E-04
-20.740 -0.266E-04
-20.730 -0.234E-04
-20.720 -0.204E-04
-20.710 -0.179E-04
-20.700 -0.157E-04
-20.690 -0.137E-04
-20.680 -0.120E-04
-20.670 -0.104E-04
-20.660 -0.906E-05
-20.650 -0.789E-05
-20.640 -0.687E-05
-20.630 -0.598E-05
-20.620 -0.520E-05
-20.610 -0.452E-05
-20.600 -0.392E-05
-20.590 -0.340E-05
-20.580 -0.294E-05
-20.570 -0.252E-05
-20.560 -0.214E-05
-20.550 -0.184E-05
-20.540 -0.157E-05
-20.530 -0.132E-05
-20.520 -0.112E-05
-20.510 -0.957E-06
-20.500 -0.822E-06
-20.490 -0.704E-06
-20.480 -0.604E-06
-20.470 -0.517E-06
-20.460 -0.441E-06
-20.450 -0.374E-06
-20.440 -0.314E-06
-20.430 -0.256E-06
-20.420 -0.187E-06
-20.410 -0.152E-06
-20.400 -0.126E-06
-20.390 -0.103E-06
-20.380 -0.807E-07
-20.370 -0.575E-07
-20.360 -0.340E-07
-20.350 -0.186E-07
-20.340 -0.600E-08
-20.330  0.000E+00
-20.320  0.000E+00
-20.310  0.000E+00
-20.300  0.000E+00
-20.290  0.000E+00
-20.280  0.000E+00
-20.270  0.000E+00
-20.260  0.000E+00
-20.250  0.000E+00
-20.240  0.000E+00
-20.230  0.000E+00
-20.220  0.000E+00
-20.210  0.000E+00
-20.200  0.000E+00
-20.190  0.000E+00
-20.180  0.000E+00
-20.170  0.000E+00
-20.160  0.000E+00
-20.150  0.000E+00
-20.140  0.000E+00
-20.130  0.000E+00
-20.120  0.000E+00
-20.110  0.000E+00
-20.100  0.000E+00
-20.090  0.000E+00
-20.080  0.000E+00
-20.070  0.000E+00
-20.060  0.000E+00
-20.050  0.000E+00
-20.040  0.000E+00
-20.030  0.000E+00
-20.020  0.000E+00
-20.010  0.000E+00
-20.000  0.000E+00
-19.990  0.000E+00
-19.980  0.000E+00
-19.970  0.000E+00
-19.960  0.000E+00
-19.950  0.000E+00
-19.940  0.000E+00
-19.930  0.000E+00
-19.920  0.000E+00
-19.910  0.000E+00
-19.900  0.000E+00
-19.890  0.000E+00
-19.880  0.000E+00
-19.870  0.000E+00
-19.860  0.000E+00
-19.850  0.000E+00
-19.840  0.000E+00
-19.830  0.000E+00
-19.820  0.000E+00
-19.810  0.000E+00
-19.800  0.000E+00
-19.790  0.000E+00
-19.780  0.000E+00
-19.770  0.000E+00
-19.760  0.000E+00
-19.750  0.000E+00
-19.740  0.000E+00
-19.730  0.000E+00
-19.720  0.000E+00
-19.710  0.000E+00
-19.700  0.000E+00
-19.690  0.000E+00
-19.680  0.000E+00
-19.670  0.000E+00
-19.660  0.000E+00
-19.650  0.000E+00
-19.640  0.000E+00
-19.630  0.000E+00
-19.620  0.000E+00
-19.610  0.000E+00
-19.600  0.000E+00
-19.590  0.000E+00
-19.580  0.000E+00
-19.570  0.000E+00
-19.560  0.000E+00
-19.550  0.000E+00
-19.540  0.000E+00
-19.530  0.000E+00
-19.520  0.000E+00
-19.510  0.000E+00
-19.500  0.000E+00
-19.490  0.000E+00
-19.480  0.000E+00
-19.470  0.000E+00
-19.460  0.000E+00
-19.450  0.000E+00
-19.440  0.000E+00
-19.430  0.000E+00
-19.420  0.000E+00
-19.410  0.000E+00
-19.400  0.000E+00
-19.390  0.000E+00
-19.380  0.000E+00
-19.370  0.000E+00
-19.360  0.000E+00
-19.350  0.000E+00
-19.340  0.000E+00
-19.330  0.000E+00
-19.320  0.000E+00
-19.310  0.000E+00
-19.300  0.000E+00
-19.290  0.000E+00
-19.280  0.000E+00
-19.270  0.000E+00
-19.260  0.000E+00
-19.250  0.000E+00
-19.240  0.000E+00
-19.230  0.000E+00
-19.220  0.000E+00
-19.210  0.000E+00
-19.200  0.000E+00
-19.190  0.000E+00
-19.180  0.000E+00
-19.170  0.000E+00
-19.160  0.000E+00
-19.150  0.000E+00
-19.140  0.000E+00
-19.130  0.000E+00
-19.120  0.000E+00
-19.110  0.000E+00
-19.100  0.000E+00
-19.090  0.000E+00
-19.080  0.000E+00
-19.070  0.000E+00
-19.060  0.000E+00
-19.050  0.000E+00
-19.040  0.000E+00
-19.030  0.000E+00
-19.020  0.000E+00
-19.010  0.000E+00
-19.000  0.000E+00
-18.990  0.000E+00
-18.980  0.000E+00
-18.970  0.000E+00
-18.960  0.000E+00
-18.950  0.000E+00
-18.940  0.000E+00
-18.930  0.000E+00
-18.920  0.000E+00
-18.910  0.000E+00
-18.900  0.000E+00
-18.890  0.000E+00
-18.880  0.000E+00
-18.870  0.000E+00
-18.860  0.000E+00
-18.850  0.000E+00
-18.840  0.000E+00
-18.830  0.000E+00
-18.820  0.000E+00
-18.810  0.000E+00
-18.800  0.000E+00
-18.790  0.000E+00
-18.780  0.000E+00
-18.770  0.000E+00
-18.760  0.000E+00
-18.750  0.000E+00
-18.740  0.000E+00
-18.730  0.000E+00
-18.720  0.000E+00
-18.710  0.000E+00
-18.700  0.000E+00
-18.690  0.000E+00
-18.680  0.000E+00
-18.670  0.000E+00
-18.660  0.000E+00
-18.650  0.000E+00
-18.640  0.000E+00
-18.630  0.000E+00
-18.620  0.000E+00
-18.610  0.000E+00
-18.600  0.000E+00
-18.590  0.000E+00
-18.580  0.000E+00
-18.570  0.000E+00
-18.560  0.000E+00
-18.550  0.000E+00
-18.540  0.000E+00
-18.530  0.000E+00
-18.520  0.000E+00
-18.510  0.000E+00
-18.500  0.000E+00
-18.490  0.000E+00
-18.480  0.000E+00
-18.470  0.000E+00
-18.460  0.000E+00
-18.450  0.000E+00
-18.440  0.000E+00
-18.430  0.000E+00
-18.420  0.000E+00
-18.410  0.000E+00
-18.400  0.000E+00
-18.390  0.000E+00
-18.380  0.000E+00
-18.370  0.000E+00
-18.360  0.000E+00
-18.350  0.000E+00
-18.340  0.000E+00
-18.330  0.000E+00
-18.320  0.000E+00
-18.310  0.000E+00
-18.300  0.000E+00
-18.290  0.000E+00
-18.280  0.000E+00
-18.270  0.000E+00
-18.260  0.000E+00
-18.250  0.000E+00
-18.240  0.000E+00
-18.230  0.000E+00
-18.220  0.000E+00
-18.210  0.000E+00
-18.200  0.000E+00
-18.190  0.000E+00
-18.180  0.000E+00
-18.170  0.000E+00
-18.160  0.000E+00
-18.150  0.000E+00
-18.140  0.000E+00
-18.130  0.000E+00
-18.120  0.000E+00
-18.110  0.000E+00
-18.100  0.000E+00
-18.090  0.000E+00
-18.080  0.000E+00
-18.070  0.000E+00
-18.060  0.000E+00
-18.050  0.000E+00
-18.040  0.000E+00
-18.030  0.000E+00
-18.020  0.000E+00
-18.010  0.000E+00
-18.000  0.000E+00
-17.990  0.000E+00
-17.980  0.000E+00
-17.970  0.000E+00
-17.960  0.000E+00
-17.950  0.000E+00
-17.940  0.000E+00
-17.930  0.000E+00
-17.920  0.000E+00
-17.910  0.000E+00
-17.900  0.000E+00
-17.890  0.000E+00
-17.880  0.000E+00
-17.870  0.000E+00
-17.860  0.000E+00
-17.850  0.000E+00
-17.840  0.000E+00
-17.830  0.000E+00
-17.820  0.000E+00
-17.810  0.000E+00
-17.800  0.000E+00
-17.790  0.000E+00
-17.780  0.000E+00
-17.770  0.000E+00
-17.760  0.000E+00
-17.750  0.000E+00
-17.740  0.000E+00
-17.730  0.000E+00
-17.720  0.000E+00
-17.710  0.000E+00
-17.700  0.000E+00
-17.690  0.000E+00
-17.680  0.000E+00
-17.670  0.000E+00
-17.660  0.000E+00
-17.650  0.000E+00
-17.640  0.000E+00
-17.630  0.000E+00
-17.620  0.000E+00
-17.610  0.000E+00
-17.600  0.000E+00
-17.590  0.000E+00
-17.580  0.000E+00
-17.570  0.000E+00
-17.560  0.000E+00
-17.550  0.000E+00
-17.540  0.000E+00
-17.530  0.000E+00
-17.520  0.000E+00
-17.510  0.000E+00
-17.500  0.000E+00
-17.490  0.000E+00
-17.480  0.000E+00
-17.470  0.000E+00
-17.460  0.000E+00
-17.450  0.000E+00
-17.440  0.000E+00
-17.430  0.000E+00
-17.420  0.000E+00
-17.410  0.000E+00
-17.400  0.000E+00
-17.390  0.000E+00
-17.380  0.000E+00
-17.370  0.000E+00
-17.360  0.000E+00
-17.350  0.000E+00
-17.340  0.000E+00
-17.330  0.000E+00
-17.320  0.000E+00
-17.310  0.000E+00
-17.300  0.000E+00
-17.290  0.000E+00
-17.280  0.000E+00
-17.270  0.000E+00
-17.260  0.000E+00
-17.250  0.000E+00
-17.240  0.000E+00
-17.230  0.000E+00
-17.220  0.000E+00
-17.210  0.000E+00
-17.200  0.000E+00
-17.190  0.000E+00
-17.180  0.000E+00
-17.170  0.000E+00
-17.160  0.000E+00
-17.150  0.000E+00
-17.140  0.000E+00
-17.130  0.000E+00
-17.120  0.000E+00
-17.110  0.000E+00
-17.100  0.000E+00
-17.090  0.000E+00
-17.080  0.000E+00
-17.070  0.000E+00
-17.060  0.000E+00
-17.050  0.000E+00
-17.040  0.000E+00
-17.030  0.000E+00
-17.020  0.000E+00
-17.010  0.000E+00
-17.000  0.000E+00
-16.990  0.000E+00
-16.980  0.000E+00
-16.970  0.000E+00
-16.960  0.000E+00
-16.950  0.000E+00
-16.940  0.000E+00
-16.930  0.000E+00
-16.920  0.000E+00
-16.910  0.000E+00
-16.900  0.000E+00
-16.890  0.000E+00
-16.880  0.000E+00
-16.870  0.000E+00
-16.860  0.000E+00
-16.850  0.000E+00
-16.840  0.000E+00
-16.830  0.000E+00
-16.820  0.000E+00
-16.810  0.000E+00
-16.800  0.000E+00
-16.790  0.000E+00
-16.780  0.000E+00
-16.770  0.000E+00
-16.760  0.000E+00
-16.750  0.000E+00
-16.740  0.000E+00
-16.730  0.000E+00
-16.720  0.000E+00
-16.710  0.000E+00
-16.700  0.000E+00
-16.690  0.000E+00
-16.680  0.000E+00
-16.670  0.000E+00
-16.660  0.000E+00
-16.650  0.000E+00
-16.640  0.000E+00
-16.630  0.000E+00
-16.620  0.000E+00
-16.610  0.000E+00
-16.600  0.000E+00
-16.590  0.000E+00
-16.580  0.000E+00
-16.570  0.000E+00
-16.560  0.000E+00
-16.550  0.000E+00
-16.540  0.000E+00
-16.530  0.000E+00
-16.520  0.000E+00
-16.510  0.000E+00
-16.500  0.000E+00
-16.490  0.000E+00
-16.480  0.000E+00
-16.470  0.000E+00
-16.460  0.000E+00
-16.450  0.000E+00
-16.440  0.000E+00
-16.430  0.000E+00
-16.420  0.000E+00
-16.410  0.000E+00
-16.400  0.000E+00
-16.390  0.000E+00
-16.380  0.000E+00
-16.370  0.000E+00
-16.360  0.000E+00
-16.350  0.000E+00
-16.340  0.000E+00
-16.330  0.000E+00
-16.320  0.000E+00
-16.310  0.000E+00
-16.300  0.000E+00
-16.290  0.000E+00
-16.280  0.000E+00
-16.270  0.000E+00
-16.260  0.000E+00
-16.250  0.000E+00
-16.240  0.000E+00
-16.230  0.000E+00
-16.220  0.000E+00
-16.210  0.000E+00
-16.200  0.000E+00
-16.190  0.000E+00
-16.180  0.000E+00
-16.170  0.000E+00
-16.160  0.000E+00
-16.150  0.000E+00
-16.140  0.000E+00
-16.130  0.000E+00
-16.120  0.000E+00
-16.110  0.000E+00
-16.100  0.000E+00
-16.090  0.000E+00
-16.080  0.000E+00
-16.070  0.000E+00
-16.060  0.000E+00
-16.050  0.000E+00
-16.040  0.000E+00
-16.030  0.000E+00
-16.020  0.000E+00
-16.010  0.000E+00
-16.000  0.000E+00
-15.990  0.000E+00
-15.980  0.000E+00
-15.970  0.000E+00
-15.960  0.000E+00
-15.950  0.000E+00
-15.940  0.000E+00
-15.930  0.000E+00
-15.920  0.000E+00
-15.910  0.000E+00
-15.900  0.000E+00
-15.890  0.000E+00
-15.880  0.000E+00
-15.870  0.000E+00
-15.860  0.000E+00
-15.850  0.000E+00
-15.840  0.000E+00
-15.830  0.000E+00
-15.820  0.000E+00
-15.810  0.000E+00
-15.800  0.000E+00
-15.790  0.000E+00
-15.780  0.000E+00
-15.770  0.000E+00
-15.760  0.000E+00
-15.750  0.000E+00
-15.740  0.000E+00
-15.730  0.000E+00
-15.720  0.000E+00
-15.710  0.000E+00
-15.700  0.000E+00
-15.690  0.000E+00
-15.680  0.000E+00
-15.670  0.000E+00
-15.660  0.000E+00
-15.650  0.000E+00
-15.640  0.000E+00
-15.630  0.000E+00
-15.620  0.000E+00
-15.610  0.000E+00
-15.600  0.000E+00
-15.590  0.000E+00
-15.580  0.000E+00
-15.570  0.000E+00
-15.560  0.000E+00
-15.550  0.000E+00
-15.540  0.000E+00
-15.530  0.000E+00
-15.520  0.000E+00
-15.510  0.000E+00
-15.500  0.000E+00
-15.490  0.000E+00
-15.480  0.000E+00
-15.470  0.000E+00
-15.460  0.000E+00
-15.450  0.000E+00
-15.440  0.000E+00
-15.430  0.000E+00
-15.420  0.000E+00
-15.410  0.000E+00
-15.400  0.000E+00
-15.390  0.000E+00
-15.380  0.000E+00
-15.370  0.000E+00
-15.360  0.000E+00
-15.350  0.000E+00
-15.340  0.000E+00
-15.330  0.000E+00
-15.320  0.000E+00
-15.310  0.000E+00
-15.300  0.000E+00
-15.290  0.000E+00
-15.280  0.000E+00
-15.270  0.000E+00
-15.260  0.000E+00
-15.250  0.000E+00
-15.240  0.000E+00
-15.230  0.000E+00
-15.220  0.000E+00
-15.210  0.000E+00
-15.200  0.000E+00
-15.190  0.000E+00
-15.180  0.000E+00
-15.170  0.000E+00
-15.160  0.000E+00
-15.150  0.000E+00
-15.140  0.000E+00
-15.130  0.000E+00
-15.120  0.000E+00
-15.110  0.000E+00
-15.100  0.000E+00
-15.090  0.000E+00
-15.080  0.000E+00
-15.070  0.000E+00
-15.060  0.000E+00
-15.050  0.000E+00
-15.040  0.000E+00
-15.030  0.000E+00
-15.020  0.000E+00
-15.010  0.000E+00
-15.000  0.000E+00
-14.990  0.000E+00
-14.980  0.000E+00
-14.970  0.000E+00
-14.960  0.000E+00
-14.950  0.000E+00
-14.940  0.000E+00
-14.930  0.000E+00
-14.920  0.000E+00
-14.910  0.000E+00
-14.900  0.000E+00
-14.890  0.000E+00
-14.880  0.000E+00
-14.870  0.000E+00
-14.860  0.000E+00
-14.850  0.000E+00
-14.840  0.000E+00
-14.830  0.000E+00
-14.820  0.000E+00
-14.810  0.000E+00
-14.800  0.000E+00
-14.790  0.000E+00
-14.780  0.000E+00
-14.770  0.000E+00
-14.760  0.000E+00
-14.750  0.000E+00
-14.740  0.000E+00
-14.730  0.000E+00
-14.720  0.000E+00
-14.710  0.000E+00
